File: Grupo 8 03-10-2023/Grupo 8 CV com par Ferri_Ferro.txt
Potential applied (V);Time (s);WE(1).Current (A);WE(1).Potential (V);Scan;Index;Q+;Q-;Current range;Overload
0,262451171875;7,61093298078424;7,66082763671875E-05;0,263275146484375;1;1;0,000143168404370117;-8,20270522094727E-05;10 µA;Current overload
0,308837890625;8,07453297961376;3,143310546875E-05;0,30938720703125;1;20;0,000143168404370117;-8,20270522094727E-05;10 µA;
0,355224609375;8,53813297844329;2,305908203125E-05;0,355682373046875;1;39;0,000143168404370117;-8,20270522094727E-05;10 µA;
0,401611328125;9,00173297727281;1,89178466796875E-05;0,402130126953125;1;58;0,000143168404370117;-8,20270522094727E-05;10 µA;
0,447998046875;9,46533297610233;1,6412353515625E-05;0,448577880859375;1;77;0,000143168404370117;-8,20270522094727E-05;10 µA;
0,494384765625;9,92893297493185;1,4752197265625E-05;0,495025634765625;1;96;0,000143168404370117;-8,20270522094727E-05;10 µA;
0,540771484375;10,3925329737614;1,358642578125E-05;0,5413818359375;1;115;0,000143168404370117;-8,20270522094727E-05;10 µA;
0,587158203125;10,8561329725909;1,27532958984375E-05;0,587860107421875;1;134;0,000143168404370117;-8,20270522094727E-05;10 µA;
0,633544921875;11,3197329714204;1,21856689453125E-05;0,63427734375;1;153;0,000143168404370117;-8,20270522094727E-05;10 µA;
0,679931640625;11,7833329702499;1,18927001953125E-05;0,6806640625;1;172;0,000143168404370117;-8,20270522094727E-05;10 µA;
0,677490234375;12,2469329690795;1,065673828125E-05;0,67840576171875;1;191;0,000143168404370117;-8,20270522094727E-05;10 µA;
0,631103515625;12,710532967909;9,759521484375E-06;0,631866455078125;1;210;0,000143168404370117;-8,20270522094727E-05;10 µA;
0,584716796875;13,1741329667385;9,234619140625E-06;0,58538818359375;1;229;0,000143168404370117;-8,20270522094727E-05;10 µA;
0,538330078125;13,637732965568;8,82568359375E-06;0,538909912109375;1;248;0,000143168404370117;-8,20270522094727E-05;10 µA;
0,491943359375;14,1013329643976;8,4747314453125E-06;0,4925537109375;1;267;0,000143168404370117;-8,20270522094727E-05;10 µA;
0,445556640625;14,5649329632271;8,14208984375E-06;0,446044921875;1;286;0,000143168404370117;-8,20270522094727E-05;10 µA;
0,399169921875;15,0285329620566;7,8033447265625E-06;0,399627685546875;1;305;0,000143168404370117;-8,20270522094727E-05;10 µA;
0,352783203125;15,4921329608861;7,3486328125E-06;0,35321044921875;1;324;0,000143168404370117;-8,20270522094727E-05;10 µA;
0,306396484375;15,9557329597156;6,2164306640625E-06;0,30670166015625;1;343;0,000143168404370117;-8,20270522094727E-05;10 µA;
0,260009765625;16,4193329585452;1,9677734375E-06;0,260345458984375;1;362;0,000143168404370117;-8,20270522094727E-05;1 µA;
0,213623046875;16,8829329573747;-1,0113525390625E-05;0,213714599609375;1;381;0,000143168404370117;-8,20270522094727E-05;10 µA;
0,167236328125;17,3465329562042;-2,2100830078125E-05;0,167083740234375;1;400;0,000143168404370117;-8,20270522094727E-05;10 µA;
0,120849609375;17,8101329550337;-2,0556640625E-05;0,120697021484375;1;419;0,000143168404370117;-8,20270522094727E-05;10 µA;
0,074462890625;18,2737329538633;-1,5557861328125E-05;0,0743408203125;1;438;0,000143168404370117;-8,20270522094727E-05;10 µA;
0,028076171875;18,7373329526928;-1,26861572265625E-05;0,0280181884765625;1;457;0,000143168404370117;-8,20270522094727E-05;10 µA;
-0,018310546875;19,2009329515223;-1,16363525390625E-05;-0,0184112548828125;1;476;0,000143168404370117;-8,20270522094727E-05;10 µA;
-0,064697265625;19,6645329503518;-1,19903564453125E-05;-0,06500244140625;1;495;0,000143168404370117;-8,20270522094727E-05;10 µA;
-0,111083984375;20,1281329491813;-1,32781982421875E-05;-0,11138916015625;1;514;0,000143168404370117;-8,20270522094727E-05;10 µA;
-0,157470703125;20,5917329480109;-1,40716552734375E-05;-0,15789794921875;1;533;0,000143168404370117;-8,20270522094727E-05;10 µA;
-0,198974609375;21,0553329468404;-1,263427734375E-05;-0,199462890625;1;552;0,000143168404370117;-8,20270522094727E-05;10 µA;
-0,152587890625;21,5189329456699;-8,4075927734375E-06;-0,15301513671875;1;571;0,000143168404370117;-8,20270522094727E-05;10 µA;
-0,106201171875;21,9825329444994;-6,7657470703125E-06;-0,106536865234375;1;590;0,000143168404370117;-8,20270522094727E-05;10 µA;
-0,059814453125;22,446132943329;-5,7098388671875E-06;-0,060089111328125;1;609;0,000143168404370117;-8,20270522094727E-05;10 µA;
-0,013427734375;22,9097329421585;-4,7821044921875E-06;-0,0135498046875;1;628;0,000143168404370117;-8,20270522094727E-05;10 µA;
0,032958984375;23,373332940988;-3,9239501953125E-06;0,032916259765625;1;647;0,000143168404370117;-8,20270522094727E-05;1 µA;
0,079345703125;23,8369329398175;-2,82867431640625E-06;0,079193115234375;1;666;0,000143168404370117;-8,20270522094727E-05;1 µA;
0,125732421875;24,3005329386471;2,2552490234375E-07;0,12579345703125;1;685;0,000143168404370117;-8,20270522094727E-05;1 µA;
0,172119140625;24,7641329374766;1,00494384765625E-05;0,17230224609375;1;704;0,000143168404370117;-8,20270522094727E-05;10 µA;
0,218505859375;25,2277329363061;2,4322509765625E-05;0,21881103515625;1;723;0,000143168404370117;-8,20270522094727E-05;10 µA;
0,264892578125;25,6913329351356;2,6165771484375E-05;0,265350341796875;2;742;0,000113890003088379;-8,3621532788086E-05;10 µA;
0,311279296875;26,1549329339651;2,0916748046875E-05;0,311676025390625;2;761;0,000113890003088379;-8,3621532788086E-05;10 µA;
0,357666015625;26,6185329327947;1,69891357421875E-05;0,358123779296875;2;780;0,000113890003088379;-8,3621532788086E-05;10 µA;
0,404052734375;27,0821329316242;1,45751953125E-05;0,404541015625;2;799;0,000113890003088379;-8,3621532788086E-05;10 µA;
0,450439453125;27,5457329304537;1,29974365234375E-05;0,4510498046875;2;818;0,000113890003088379;-8,3621532788086E-05;10 µA;
0,496826171875;28,0093329292832;1,18927001953125E-05;0,4974365234375;2;837;0,000113890003088379;-8,3621532788086E-05;10 µA;
0,543212890625;28,4729329281128;1,10931396484375E-05;0,543792724609375;2;856;0,000113890003088379;-8,3621532788086E-05;10 µA;
0,589599609375;28,9365329269423;1,0528564453125E-05;0,59027099609375;2;875;0,000113890003088379;-8,3621532788086E-05;10 µA;
0,635986328125;29,4001329257718;1,0205078125E-05;0,63677978515625;2;894;0,000113890003088379;-8,3621532788086E-05;10 µA;
0,682373046875;29,8637329246013;1,01470947265625E-05;0,683135986328125;2;913;0,000113890003088379;-8,3621532788086E-05;10 µA;
0,675048828125;30,3273329234308;9,0057373046875E-06;0,67584228515625;2;932;0,000113890003088379;-8,3621532788086E-05;10 µA;
0,628662109375;30,7909329222604;8,2275390625E-06;0,629364013671875;2;951;0,000113890003088379;-8,3621532788086E-05;10 µA;
0,582275390625;31,2545329210899;7,7850341796875E-06;0,582977294921875;2;970;0,000113890003088379;-8,3621532788086E-05;10 µA;
0,535888671875;31,7181329199194;7,470703125E-06;0,536529541015625;2;989;0,000113890003088379;-8,3621532788086E-05;10 µA;
0,489501953125;32,1817329187489;7,2113037109375E-06;0,490081787109375;2;1008;0,000113890003088379;-8,3621532788086E-05;10 µA;
0,443115234375;32,6453329175785;6,97021484375E-06;0,443572998046875;2;1027;0,000113890003088379;-8,3621532788086E-05;10 µA;
0,396728515625;33,108932916408;6,6986083984375E-06;0,39715576171875;2;1046;0,000113890003088379;-8,3621532788086E-05;10 µA;
0,350341796875;33,5725329152375;6,2896728515625E-06;0,350738525390625;2;1065;0,000113890003088379;-8,3621532788086E-05;10 µA;
0,303955078125;34,036132914067;5,17578125E-06;0,304290771484375;2;1084;0,000113890003088379;-8,3621532788086E-05;10 µA;
0,257568359375;34,4997329128965;7,8948974609375E-07;0,257781982421875;2;1103;0,000113890003088379;-8,3621532788086E-05;1 µA;
0,211181640625;34,9633329117261;-1,1688232421875E-05;0,21124267578125;2;1122;0,000113890003088379;-8,3621532788086E-05;10 µA;
0,164794921875;35,4269329105556;-2,33154296875E-05;0,16473388671875;2;1141;0,000113890003088379;-8,3621532788086E-05;10 µA;
0,118408203125;35,8905329093851;-2,1160888671875E-05;0,1182861328125;2;1160;0,000113890003088379;-8,3621532788086E-05;10 µA;
0,072021484375;36,3541329082146;-1,61590576171875E-05;0,0718994140625;2;1179;0,000113890003088379;-8,3621532788086E-05;10 µA;
0,025634765625;36,8177329070442;-1,3287353515625E-05;0,025592041015625;2;1198;0,000113890003088379;-8,3621532788086E-05;10 µA;
-0,020751953125;37,2813329058737;-1,2066650390625E-05;-0,0208831787109375;2;1217;0,000113890003088379;-8,3621532788086E-05;10 µA;
-0,067138671875;37,7449329047032;-1,19384765625E-05;-0,06744384765625;2;1236;0,000113890003088379;-8,3621532788086E-05;10 µA;
-0,113525390625;38,2085329035327;-1,24786376953125E-05;-0,1138916015625;2;1255;0,000113890003088379;-8,3621532788086E-05;10 µA;
-0,159912109375;38,6721329023623;-1,28326416015625E-05;-0,16033935546875;2;1274;0,000113890003088379;-8,3621532788086E-05;10 µA;
-0,196533203125;39,1357329011918;-1,16180419921875E-05;-0,197021484375;2;1293;0,000113890003088379;-8,3621532788086E-05;10 µA;
-0,150146484375;39,5993329000213;-8,2733154296875E-06;-0,15057373046875;2;1312;0,000113890003088379;-8,3621532788086E-05;10 µA;
-0,103759765625;40,0629328988508;-6,7962646484375E-06;-0,104095458984375;2;1331;0,000113890003088379;-8,3621532788086E-05;10 µA;
-0,057373046875;40,5265328976803;-5,841064453125E-06;-0,057525634765625;2;1350;0,000113890003088379;-8,3621532788086E-05;10 µA;
-0,010986328125;40,9901328965099;-5,0201416015625E-06;-0,0111114501953125;2;1369;0,000113890003088379;-8,3621532788086E-05;10 µA;
0,035400390625;41,4537328953394;-4,23980712890625E-06;0,03536376953125;2;1388;0,000113890003088379;-8,3621532788086E-05;1 µA;
0,081787109375;41,9173328941689;-3,1158447265625E-06;0,08148193359375;2;1407;0,000113890003088379;-8,3621532788086E-05;1 µA;
0,128173828125;42,3809328929984;1,83807373046875E-07;0,12823486328125;2;1426;0,000113890003088379;-8,3621532788086E-05;1 µA;
0,174560546875;42,844532891828;1,055908203125E-05;0,174774169921875;2;1445;0,000113890003088379;-8,3621532788086E-05;10 µA;
0,220947265625;43,3081328906575;2,459716796875E-05;0,2213134765625;2;1464;0,000113890003088379;-8,3621532788086E-05;10 µA;
0,260009765625;43,6985328896718;2,61627197265625E-05;0,260406494140625;2;1480;0,000113890003088379;-8,3621532788086E-05;10 µA;